/* DESCRIPTION:
Reference:	Hendy, I.L., J.P. Kennett, E.B. Roark, and B.L. Ingram.  2002. Apparent synchroneity of submillennial scale climate events between Greenland and Santa Barbara Basin, California from 30–10 ka. Quaternary Science Reviews, Vol. 21, Issue 10, pp. 1167-1184, May 2002. doi:10.1016/S0277-3791(01)00138-X.
	Hendy, I.L., and J.P. Kennett. 2003. Tropical forcing of North Pacific intermediate water distribution during Late Quaternary rapid climate change? Quaternary Science Reviews, Vol. 22, Issues 5-7, pp. 673-689. doi:10.1016/S0277-3791(02)00186-5.
Data from:	https://www.ncei.noaa.gov/access/paleo-search/study/5830. Accessed 11 Nov 2022.
	https://www.ncei.noaa.gov/access/paleo-search/study/5829. Accessed 11 Nov 2022.
Comment:	Several variables from the original datasets are not included here.
*/
Age [ka] vs. 2000AD	N. pachyderma d18O	N. pachyderma d13C	G. bulloides d18O	G. bulloides d13C	benthic d18O
0.303	0.267		-0.175		
0.43	0.338		-0.095		
0.794	0.471				
1.09	0.642		-0.029		
1.37	0.735		0.026		
1.641	0.429		-0.003		
1.901	0.535		-0.091		
2.5	0.516		-0.118		
2.81	0.404		-0.002		
3.024	0.393				
4.644	0.514		-0.148		
5.057	0.646		-0.14		
5.491	0.524		-0.207		
5.917	0.391		0.03		
6.303	0.516		-0.086		
6.691	0.523		-0.116		
7.032	0.301		-0.17		
7.397	0.411		-0.014		
7.714	0.493		-0.003		
8.055	0.609		0.018		
8.316	0.499		0.164		
8.528	0.676		0.215		
8.712	0.859		0.144		
9.035	0.74		0.065		
9.085	0.745		0.235		
9.151	0.78		0.234		
9.217	0.716		0.148		
10.471					2.504
10.627	0.635	0.517	0.175	-1.245	2.242
10.655	0.895	0.257	0.395	-1.221	2.652
10.671	0.687	0.407	0.029	-0.875	2.146
10.698	0.826	0.223	0.49	-1.104	
10.722			0.173	-1.115	2.02
10.746	0.75	0.154	0.487	-1.016	
10.766	0.469	-0.39	0.067	-1.131	1.829
10.781	0.707	0.354	0.359	-1.026	2.695
10.809	0.766	0.35	0.275	-0.898	2.148
10.834	0.772	0.293	0.263	-1.109	2.694
10.852	0.795	0.434	-0.071	-1.187	2.086
10.887			0.27	-1.489	
10.944	0.876	0.116	0.096	-1.366	2.398
10.997	0.888	0.304	0.314	-0.934	2.506
11.036	0.878	0.346	0.257	-0.606	2.414
11.056	0.929	0.314	0.31	-0.881	2.683
11.076	0.845	0.492	0.344	-0.771	2.379
11.111	0.907	0.354	0.255	-0.315	2.52
11.136	1.066	0.347	0.469	-0.7	2.471
11.177	0.901	0.409	0.219	-0.565	2.705
11.207	1.075	0.345	0.279	-1.204	2.717
11.245	1.013	0.399	-0.055	-1.062	2.411
11.271	1.008	0.325	0.01	-0.98	2.688
11.296	1.282	0.247	0.576	-0.392	
11.326	1.262	0.352	-0.005	-0.95	2.706
11.418	1.55	0.138			3.081
11.458	1.45	0.369	-0.17	-1.273	2.651
11.484	1.457	0.257	0.22	-1.301	
11.524	1.48	0.372			2.537
11.585	1.402	0.424	0.336	-1.177	3.153
11.672	1.373	0.137			3.024
11.819	1.708	0.419			3.037
11.865	1.511	0.47	1.404	-1.121	3.267
11.906	1.561	0.52	0.565	-1.171	3.158
11.946	1.617	0.406			
12.001	1.523	0.597			3.577
12.048	1.614	0.516	1.476	-1.116	3.296
12.102	1.673	0.524			3.212
12.122	1.788	0.396			3.203
12.183	1.424	0.427			3.168
12.23	1.383	0.267			3.029
12.291	1.718	-0.043			3.176
12.345	1.938	-0.232			3.136
12.392	1.761	0.218	0.268	-1.362	3.272
12.44	1.647	0.247	0.545	-1.544	3.315
12.467	1.628	0.459	0.022	-2.013	3.294
12.514	2.106	0.142	0.481	-1.963	3.292
12.582	1.791	-0.116	0.925	-1.412	3.498
12.703	1.565	0.707	1.013	-1.241	3.339
12.764	1.655	0.441	0.909	-0.908	3.267
12.826	1.562	0.377	0.741	-1.245	3.322
12.896	1.29	0.244	0.496	-1.805	3.019
13.01	1.474	0.23	0.645	-1.397	3.036
13.072	1.322	0.307	0.459	-1.287	3.077
13.098					3.116
13.119	1.35	0.412	0.592	-1.501	2.898
13.139	1.273	0.179	0.861	-0.955	2.851
13.159	1.317	0.149	0.939	-0.673	2.813
13.18	1.457	0.186	0.742	-0.345	2.913
13.206	1.112	0.162			2.877
13.221	1.172	0.546	0.873	-0.758	2.939
13.241	1.215	0.552	0.943	-1.295	
13.264	1.283	0.368	0.9	-0.935	3.035
13.285	1.418	0.324	1.248	-0.964	2.976
13.305	1.187	0.618	0.405	-1.139	3.02
13.326	1.021	0.437			
13.346	1.221	0.552	0.896	-1.144	2.866
13.367	1.113	0.522	0.86	-1.341	2.88
13.387	1.267	0.337	0.714	-1.24	2.883
13.407	1.369	0.329	0.937	-1.195	3.001
13.428	1.347	0.42	1.109	-1.174	2.982
13.454	1.45	0.346	0.948	-1.361	3.017
13.48	1.373	-0.031	0.752	-1.503	
13.542	1.369	0.475	0.618	-1.31	2.925
13.589	1.313	0.34	0.557	-1.062	3.108
13.616	1.364	0.499	0.612	-0.929	3.004
13.642	1.407	0.373	0.892	-1.161	2.987
13.679	1.429	0.382	0.617	-1.071	2.96
13.71	1.529	0.225	0.625	-0.84	2.85
13.752	1.362	0.28	0.678	-1.169	2.841
13.773	1.345	0.354	0.293	-1.6	2.966
13.804	1.255	0.579	0.251	-1.314	2.985
13.825	1.531	0.165	0.713	-1.191	3.02
13.878	1.391	0.409	0.598	-1.382	3.042
13.915	1.662	0.307	0.938	-1.363	3.195
13.93	1.616	0.098	0.93	-1.06	3.102
13.988	1.427	0.491	0.596	-1.347	3.042
14.025	1.607	0.416	0.743	-0.795	2.968
14.062	1.708	0.263	0.694	-1.401	3.046
14.098	1.481	0.388	1.081	-1.226	
14.135	1.431	0.382	0.483	-1.24	3.043
14.156	1.294	0.338	0.898	-1.608	3.009
14.193					3.124
14.198	1.203	0.356	0.649	-1.346	
14.229	1.401	0.344	0.917	-1.436	3.106
14.271					3.081
14.277	1.33	0.442	0.554	-1.48	
14.308	1.012	-0.01	0.72	-1.492	
14.345	1.417	0.279	0.713	-1.396	2.963
14.381	1.357	0.469	0.63	-1.379	3.276
14.413	1.197	0.188	0.568	-1.756	
14.455	1.516	0.133	0.773	-1.653	
14.492	1.679	0.162	0.723	-1.459	
14.528	1.301	0.099			
14.56	1.159	0.187	0.745	-1.369	
14.694	1.729	-0.015	1.445	-1.472	
14.731					2.859
14.751	1.968	0.072	0.944	-0.928	
14.808	2.027	0.034	1.59	-1.017	
14.821					3.543
14.858	2.342	0.071	1.688	-1.279	
14.915	2.019	-0.022	2.009	-0.804	
14.948	2.23	0.001	1.466	-1.113	
14.972	2.081	0.065	1.7	-0.809	
15.03	1.917	0.141	1.141	-1.423	
15.087	1.841	-0.125	1.781	-1.138	
15.144	1.835	0.239	1.53	-1.059	
15.169					3.574
15.202	1.963	0.212	1.73	-0.793	
15.317	2.152	-0.017	0.977	-1.593	
15.35					3.625
15.374	2.2	-0.036	1.09	-1.434	
15.44	2.251	-0.001	1.558	-1.624	
15.48	2.21	0.041			
15.489	2.411	0.016	1.186	-1.234	
15.53					3.413
15.554	2.406	0.011	1.671	-1.125	
15.612	2.312	0.117			
15.669	2.235	0.068	1.631	-1.192	
15.702	1.836	0.2	1.885	-1.164	
15.711					3.674
15.801					3.72
15.904					3.769
15.969					3.213
16.085					3.726
16.175					3.791
16.265					3.769
16.317					3.18
16.602	2.283	0.118	2.164	-1.186	2.766
16.621	2.641	-0.119	2.615	-0.66	
16.675	2.605	0.161	2.93	-0.808	
16.706	2.668	-0.005	2.737	-0.843	
16.729	2.241	-0.176	2.675	-0.929	
16.76	2.683	0.127	3.065	-0.722	3.923
16.786	2.784	-0.059	2.682	-0.831	3.934
16.815	2.592	-0.171			
16.856	2.552	-0.206	3.019	-0.794	
16.898	2.735	-0.057	2.945	-0.636	3.869
16.935	2.825	-0.23	2.707	-0.746	3.743
16.956	2.984	-0.18	2.804	-0.787	3.859
16.985	2.652	0.089	2.84	-0.783	3.926
17.014	2.804	-0.148	2.942	-0.776	
17.047	2.621	-0.025	2.83	-0.853	4.003
17.076	2.776	-0.038	2.739	-0.907	3.932
17.106	2.849	-0.072	3.009	-0.881	3.919
17.164	2.865	-0.125	3.043	-0.664	3.961
17.185	2.698	-0.016	3.112	-1	3.972
17.217	2.79	-0.039	2.684	-1.014	3.931
17.238	2.939	-0.026	3.127	-0.662	3.941
17.259	2.802	-0.01	2.913	-0.731	3.953
17.277	2.638	-0.228	2.771	-0.791	3.676
17.295	2.455	0.101	2.675	-0.743	
17.316	2.744	-0.096	2.888	-0.886	3.893
17.337	2.735	-0.071	2.398	-1.099	3.834
17.361	2.83	-0.199	2.899	-0.69	3.812
17.381	2.814	0.025	3.151	-0.608	3.879
17.402	3.021	-0.072	3.527	-0.691	3.947
17.423	2.718	-0.119	2.963	-0.576	3.999
17.444	2.654	-0.079	2.815	-0.947	4.013
17.465	2.567	-0.141	2.95	-0.818	3.948
17.498	2.604	-0.21	2.755	-0.837	3.878
17.518	2.699	-0.09	2.628	-0.769	3.945
17.539	2.705	-0.058	2.608	-0.877	3.941
17.554	2.851	-0.085	2.835	-0.798	3.936
17.575	2.684	-0.447	2.704	-0.702	4.068
17.596	2.597	-0.183	2.963	-0.676	3.907
17.617	2.755	-0.098	2.805	-0.851	3.801
17.638	2.647	-0.218	2.644	-0.717	3.876
17.658	2.523	-0.019	2.777	-0.877	3.777
17.682	2.602	0.11	3.224	-0.631	3.824
17.703	2.532	-0.024	2.723	-0.911	3.812
17.764	2.549	-0.157	2.405	-0.883	3.87
17.847	2.406	-0.058	2.561	-0.857	3.808
17.894	2.43	-0.079	2.516	-0.954	3.844
17.942	2.569	0.052	2.95	-0.657	3.758
18.018	2.248	-0.159	2.567	-0.725	3.719
18.052	2.347	-0.119	2.425	-0.886	3.71
18.1	2.295	0.092	2.705	-0.936	
18.148	2.734	-0.031	2.87	-0.646	3.818
18.196	2.537	0.031	2.643	-0.788	3.908
18.244	2.523	-0.066	2.634	-0.777	3.811
18.292	2.637	-0.047	2.553	-0.836	3.953
18.348	2.642	0.08	2.762	-0.541	
18.391	2.45	0.293	2.821	-0.657	3.92
18.458	2.439	-0.129	3.128	-0.573	3.711
18.517	2.805	0.055	2.752	-0.505	3.85
18.576	2.609	0.023	2.919	-0.784	3.725
18.635	2.45	-0.064	2.274	-1.378	3.726
18.669	2.249	0.124	2.781	-0.965	3.747
18.736	2.315	0.19	2.339	-0.743	3.853
18.778	2.38	-0.279	2.412	-0.615	3.772
18.837	2.348	0.06	2.366	-0.611	3.751
18.896	2.549	0.213	2.404	-0.974	3.765
18.955	2.43	0.116			3.748
19.035	2.409	-0.152			3.791
19.074	2.749	-0.069			3.685
19.112	2.48	0.243	2.521	-0.75	3.748
19.156	2.464	0.097	2.743	-0.611	3.707
19.239	2.594	-0.109	2.445	-0.621	3.755
19.315					3.692
19.34	2.546	-0.258			3.75
19.404	2.546	-0.144	2.575	-0.787	3.677
19.448	2.51	-0.079	2.575	-0.787	3.819
19.492	2.569	-0.013	2.757	-0.726	3.816
19.537	2.262	0.105	2.575	-0.738	3.768
19.581	2.326	0.195	2.877	-0.621	3.759
19.626	2.593	-0.232	2.868	-0.698	3.683
20.349	2.299	0.19	2.357	-1.096	3.773
20.895	2.188	0.324	2.517	-1.03	
20.896					3.794
20.94	2.54	0.021	2.184	-0.695	
20.942					3.782
20.985	2.408	-0.024			
20.987					3.779
21.017	2.788	-0.148			
21.056	2.487	0.042			
21.059					3.677
21.101	2.669	-0.083			
21.105					3.71
21.146	2.775	-0.036			
21.151					3.73
21.191	2.905	1.134	2.664	-0.754	
21.197					3.768
21.236	2.62	0.049	3.339	0.081	
21.242					3.793
21.294	2.471	0.036	2.657	-0.89	
21.301					3.8
21.333	2.589	0.024	2.9	-0.712	
21.34					3.859
21.378	2.552	0.121	2.729	-0.627	
21.386					3.745
21.423	2.724	-0.094	2.964	-0.713	
21.432					3.831
21.468	2.568	-0.01	2.969	-0.306	
21.478					3.817
21.507	2.479	0.075	2.954	-0.539	
21.517					3.726
21.545	2.435	0.132	2.976	-0.598	
21.556					3.851
21.59	2.45	-0.02	2.591	-0.778	
21.602					3.749
21.61	2.532	-0.411	2.907	-0.588	
21.622					3.725
21.667	2.732	-0.127	2.913	-0.688	
21.68					3.843
21.706	2.663	-0.155	2.951	-0.782	
21.72					3.803
21.751	2.788	-0.119	2.964	-0.675	
21.765					3.764
21.79	2.71	0.052	2.753	-0.701	
21.805					3.788
21.835	2.467	0.256	2.709	-0.591	
21.85					3.73
21.873	2.316	0.318	2.712	-0.595	
21.89					3.787
21.912	2.439	0.027	2.817	-0.677	
21.929					3.708
21.951	2.4	-0.089	2.764	-0.83	
21.968					3.705
21.989	2.325	0.158	2.781	-0.574	
22.007					3.699
22.067	2.638	-0.04	2.867	-0.613	
22.086					3.924
22.105	2.634	-0.181	2.975	-0.685	
22.125					3.787
22.163	2.66	-0.277	2.872	-0.602	
22.184					3.95
22.253	2.472	0.166	2.85	-0.568	
22.275					3.783
22.298	2.481	-0.124	2.895	-0.66	
22.321					3.76
22.343	2.4	0.141	2.858	-0.456	
22.367					3.694
22.395	2.596	0.097	3.039	-0.408	
22.419					3.636
22.44	2.326	-0.123	2.922	-0.561	
22.465					3.761
22.485	2.643	0.054	2.845	-0.513	
22.511					3.877
22.53	2.154	0.403	2.887	-1.027	
22.549	2.523	-0.047	2.932	-0.512	
22.557					3.879
22.576					3.754
22.595	2.458	0.093	2.828	-0.639	
22.622					3.808
22.633	2.459	-0.059	2.806	-0.676	
22.652	2.496	-0.032	2.727	-0.776	
22.661					3.848
22.681					3.831
22.717	2.649	-0.059	2.865	-0.64	
22.746					3.915
22.826	2.364	0.012	2.77	-0.687	
22.857					3.758
22.91					3.827
22.987	2.425	-0.048	2.728	-0.562	
23.021					3.814
23.032	2.449	0.019	2.896	-0.533	
23.067					3.691
23.077	2.588	0.179	3.018	-0.395	
23.112					3.749
23.129	2.597	0.127	2.627	-0.706	
23.165					3.754
23.174	2.42	0.125	2.97	-0.539	
23.21					3.77
23.219	2.197	-0.261	2.627	-0.879	
23.256					3.676
23.264	2.241	0.172	2.865	-0.666	
23.302					3.656
23.316	2.143	0.362	2.152	-0.65	
23.354					3.685
23.362	2.029	0.455	2.05	-0.699	
23.4					3.681
23.408	2.271	0.202	2.24	-0.82	
23.446					3.685
23.454	2.151	0.149	2.438	-0.976	
23.492					3.723
23.507	2.376	-0.162	2.76	-0.873	
23.544					3.779
23.553	2.463	0.104	2.746	-0.756	
23.59					3.771
23.606	1.915	0.252	2.603	-0.886	
23.642					3.835
23.652	2.103	0.201	2.616	-0.763	
23.699	2.171	0.055	2.436	-0.795	
23.733					3.607
23.751	2.748	0.059	2.608	-0.752	
23.804	2.413	0.238	2.657	-0.822	
23.837	2.542	0.022	2.703	-0.951	
23.838					3.603
23.851	2.493	-0.113	2.576	-0.882	
23.871					3.915
23.884					3.679
23.923	2.737	-0.129	2.7	-0.785	
23.956					3.848
23.969	2.507	-0.029	2.784	-0.657	
24.001					3.548
24.069	2.572	0	2.757	-0.726	
24.1					3.77
24.115	2.512	-0.108	2.7	-0.911	
24.145					3.761
24.161	2.764	-0.268	2.687	-0.902	
24.191					3.664
24.214	2.665	0.045	2.683	-0.715	
24.243					3.56
24.26	2.541	0.035	2.794	-0.642	
24.289					3.77
24.306	2.711	0.007	2.641	-0.859	
24.335					3.762
24.353	2.696	0.147	2.808	-0.697	
24.381					3.936
24.405	2.587	-0.045	2.749	-0.872	
24.433					3.611
24.452	2.604	-0.111	2.83	-0.766	
24.498	2.601	-0.064	2.692	-0.908	
24.525					4.007
24.597	2.406	-0.02	2.3455	-0.818	
24.623					4
24.643	2.448	-0.222	2.4115	-0.962	
24.683	2.5915	-0.12	2.842	-0.86	
24.729	2.553	-0.0505	2.6205	-0.879	
24.753					3.848
24.775	2.365	0.0205	2.368	-0.818	
24.799					3.913
24.828	2.489	-0.112	2.793	-0.659	
24.851					3.908
24.875	2.622	-0.0735	2.6675	-0.7915	
24.897					3.864
24.921	2.3955	-0.2255	2.524	-0.753	
24.967	2.5305	0.0435	2.529	-1.0085	
24.989					3.733
25.013	2.443	-0.059	2.608	-1.037	
25.035					3.724
25.06	2.601	-0.03	2.665	-0.757	
25.08					3.645
25.106	2.451	-0.069	2.699	-0.797	
25.126					3.565
25.145	2.521	0.094	2.62	-0.781	
25.165					3.28
25.225	2.343	0.015	2.803	-0.751	
25.244					3.545
25.251	2.551	0.083	2.73	-0.76	
25.27					3.766
25.329					3.571
25.401					3.889
25.44					3.686
25.538					3.768
25.669					3.875
25.701					3.69
25.734					3.943
25.766	2.634	-0.118	2.666	-0.949	
25.78					3.722
25.826	2.677	-0.18	2.506	-1.249	
25.872	2.608	-0.117	2.626	-1.035	
25.884					3.847
25.912	2.402	-0.42			
25.958	2.687	-0.139	2.595	-1.237	
25.969					3.961
26.011	2.694	-0.113	2.496	-1.156	
26.057	2.785	-0.123	2.566	-1.251	
26.068					3.843
26.103	2.51	-0.194	2.275	-1.327	
26.113					3.759
26.163	2.534	-0.203	2.498	-1.039	
26.172					3.838
26.216	2.443	-0.195	2.343	-1.357	
26.224					3.858
26.255	2.386	-0.013	2.392	-1.118	
26.264					3.754
26.303					3.362
26.315	2.257	-0.324	2.324	-1.023	
26.341	2.573	0.034			
26.349					3.684
26.381	2.43	-0.097	2.502	-0.99	
26.388					3.717
26.394			2.64	-0.788	
26.427	2.492	-0.065	2.665	-0.82	
26.473	2.518	-0.075	2.526	-0.867	
26.539	2.311	-0.263	2.244	-0.969	
26.592	2.46	-0.023	2.585	-0.976	
26.638	2.454	-0.212	2.559	-0.881	
26.691	2.628	-0.239	2.188	-1.004	
26.744	2.036	0.081	2.328	-0.841	
26.79	2.414	0.031			
26.837	2.384	-0.303	2.209	-0.885	
26.883	2.408	-0.159	2.329	-1.072	
26.929	2.276	0.028	2.464	-0.94	
26.975	2.044	-0.058	2.253	-1.022	
27.022	2.177	0.089	2.521	-0.857	
27.061					3.763
27.068	2.212	0.0645	2.546	-0.6035	
27.125					3.763
27.135	2.109	0.174	2.366	-0.773	
27.192					3.264
27.202	2.172	-0.184	2.311	-0.878	
27.268					3.445
27.278	2.347	-0.769	2.136	-0.701	
27.326					3.516
27.335	2.28	-0.211	2.034	-0.991	
27.392					3.717
27.402	2.367	-0.173	2.107	-0.857	
27.469					3.784
27.478	2.147	-0.249	2.087	-0.848	
27.564					3.669
27.641					3.454
27.654	1.715	0.33	1.804	-0.807	
27.761					3.666
27.774	2.135	-0.065	2.509	-0.554	
27.881	2.449	-0.062	2.597	-0.668	
28.055	2.352	-0.377	2.555	-0.914	
28.135	2.391	-0.157	2.466	-1.032	
28.226	2.444	-0.065	2.399	-0.684	
28.286	2.456	-0.051	2.538	-0.736	
28.336	2.538	-0.264			
28.415	2.239	-0.14	2.349	-0.725	
28.465	2.632	-0.344	2.453	-0.935	
28.545	2.396	-0.318	2.275	-0.944	
28.595	2.505	-0.265	2.57	-0.963	
28.675	2.491	-0.165	2.753	-0.851	
28.734	2.489	-0.246	2.614	-0.716	
28.794	2.406	0.027	2.503	-0.716	
28.844	2.391	-0.391	2.355	-1.037	
28.864	2.459	-0.052	2.776	-0.763	
28.914					3.651
28.924	2.283	0.09	2.348	-0.896	
28.983					3.93
28.993	2.245	0.075	2.456	-0.668	
29.023	2.349	0.162	2.436	-0.696	3.516
29.103					3.955
29.113	2.401	-0.04	2.366	-0.75	
29.163					3.284
29.173	1.532	0.018	1.742	-1.005	
29.232	1.834	0.345	1.519	-0.95	3.64
29.306	1.789	0.39	1.984	-0.83	3.546
29.379	1.877	0.536	2.027	-0.601	3.69
29.483	2.387	0.016	2.628	-0.793	3.5
29.566	2.574	-0.012	2.582	-0.697	3.692
29.629	2.405	-0.158	2.763	-0.672	3.52
29.702			2.459	-0.77	3.478
29.775	2.379	-0.075	2.584	-0.798	3.608
29.837	2.556	0.016	2.735	-0.703	3.655
29.91	2.515	0.021	2.608	-0.731	3.524
29.973	2.511	-0.132	2.355	-0.707	3.524
30.015	2.377	0.015	2.489	-0.636	3.537
30.056	2.511	-0.081	1.879	-1.067	
30.14	2.328	-0.053	2.572	-0.887	3.582
30.213	2.379	-0.13			3.539
30.265	2.525	-0.113	2.753	-0.61	3.451
30.348	2.137	-0.253	2.292	-0.895	3.323
30.411	2.417	-0.099	2.619	-0.668	3.647
30.494	2.499	-0.108	2.434	-0.817	3.643
30.567	2.39	-0.016	2.724	-0.656	3.692
30.599	2.364	-0.102	2.623	-0.651	
30.63	2.533	0.024	2.725	-0.604	3.633
30.703	2.388	-0.144	2.599	-0.595	3.487
30.776	2.491	0.031	2.538	-0.595	3.677
30.86	2.194	-0.012	2.529	-0.644	3.471
30.901	2.348	-0.427	2.618	-0.673	3.479
30.922	2.219	-0.237	2.715	-0.569	3.426
30.995	2.418	-0.027	2.428	-0.561	3.589
31.068	2.483	-0.0905	2.5805	-0.645	3.564
31.141	2.306	-0.017	2.546	-0.563	3.571
31.225	1.855	-0.107	2.358	-0.661	3.545
31.277	2.435	0.042	2.593	-0.382	
31.318	2.427	0.149	2.614	-0.366	3.66
31.412	2.326	0.008	2.41	-0.571	3.582
31.475	2.019	-0.17	2.102	-0.88	3.454
31.527	2.339	0.05	2.377	-0.448	3.663
31.6	2.303	0.076	1.904	-0.479	3.647
31.67	1.938	-0.168	1.305	-0.791	3.645
31.704	2.083	-0.075	1.323	-0.942	3.236
31.774	2.038	0.139	1.274	-0.732	
31.791					3.535
31.835	2.181	0.07	1.468	-0.622	3.689
31.904	2.1	0.003	1.339	-0.649	3.698
31.965	1.699	0.039	1.166	-0.902	3.38
32.035	1.831	0.096	1.273	-0.821	3.575
32.096	1.759	0.05	0.976	-1.021	3.267
32.287	1.884	0.126	1.229	-0.947	3.516
32.33	2.028	0.164	1.446	-1	3.491
32.4	2.12	0.103	1.505	-0.78	3.536
32.431	2.335	0.145	2.431	-0.583	3.565
32.457	2.403	0.021	2.308	-0.908	3.607
32.479	2.297	-0.067	2.411	-0.611	3.331
32.488	2.323	-0.1865	2.611	-0.781	3.527
32.518	2.5	-0.285	2.655	-0.61	3.642
32.549	2.474	-0.007	2.435	-0.895	3.649
32.584	2.425	-0.03	2.612	-0.688	3.631
32.623	2.12	0.106	2.42	-0.757	3.418
32.654	2.423	-0.044	2.581	-0.719	3.499
32.685	2.375	-0.026	2.544	-0.83	3.489
32.715	2.055	-0.152	2.588	-0.626	3.277
32.746	2.441	0.026	2.543	-0.732	3.55
32.755	2.229	-0.043	2.406	-0.602	3.447
32.794	2.272	0.028	2.67	-0.536	
32.825	2.457	-0.055	2.581	-0.682	3.581
32.851	2.345	0.116	2.315	-0.626	3.42
32.882	2.378	-0.128	2.746	-0.61	
32.912	2.35	-0.089	2.443	-0.564	
32.943	2.385	0.14	2.512	-0.688	3.381
32.978	2.574	0.068	2.592	-0.471	3.412
33	2.296	0.014	2.257	-0.53	3.483
33.053	2.334	0.066	2.297	-0.642	
33.099	2.24	0.165	2.281	-0.844	3.49
33.152	1.973	0.236	1.834	-0.564	3.523
33.266	2.124	0.166	1.775	-0.712	3.482
33.289	1.872	0.36	1.438	-0.382	3.28
33.342	1.965	0.173	1.867	-0.533	3.387
33.395					3.096
33.433					3.407
33.441	1.306	0.178	1.371	-0.965	
33.516	2.199	-0.22	2.249	-0.436	3.347
33.547	2.083	0.131	2.206	-0.596	3.256
33.6	1.993	-0.415	2.076	-0.668	3.546
33.635	2.413	0.087	2.679	-0.508	3.617
33.674	2.356	-0.076	2.452	-0.45	3.649
33.684	2.507	-0.039	2.726	-0.662	3.254
33.709	2.532	0.049	2.486	-0.6	
33.748	2.454	0.206	2.661	-0.438	3.594
33.778	2.501	-0.143	2.37	-0.624	3.654
33.818	2.418	-0.014	2.173	-0.762	3.531
33.842					3.45
33.852	2.215	0.191	2.521	-0.354	
33.877	2.35	0.122	2.276	-0.834	3.523
33.912	2.458	0.053	2.218	-0.616	3.586
33.951	2.343	0.039	1.892	-0.613	3.546
33.986	2.424	0.037	2.429	-0.594	3.606
34.04	2.44	-0.016	1.863	-0.742	
34.075	2.329	-0.013	2.111	-0.56	3.538
34.109	2.4	0.052	1.994	-0.603	3.543
34.139	2.08	0.143	2.166	-0.633	3.508
34.179	2.229	0.287	2.177	-0.485	3.423
34.213	2.09	0.036	2.327	-0.438	3.49
34.248	2.123	0.116	2.494	-0.574	
34.282	2.172	0.072	2.233	-0.881	
34.317	2.196	0.026	2.317	-0.574	3.484
34.337	2.211	0.0915	2.3885	-0.6345	3.556
34.371	2.04	0.005	2.148	-0.712	3.608
34.406	1.935	0.276	2.412	-0.644	3.635
34.441	2.142	-0.142	2.244	-0.685	3.584
34.475	2.146	0.05	2.514	-0.609	3.583
34.541	1.456	0.169	1.432	-0.673	3.161
34.598	1.603	0.028	2.077	-0.69	3.459
34.655	1.896	0.207	1.33	-0.658	3.516
34.713	1.64	0.197	1.416	-0.754	3.492
34.786	1.704	0.173	1.281	-0.606	3.397
34.835	1.41	0.471	1.307	-0.864	3.542
34.885	1.528	0.359	1.346	-0.68	3.39
34.934			1.201	-1.054	3.411
34.999	1.696	0.352	1.48	-1.061	3.553
35.056	1.671	-0.064	1.197	-0.729	3.475
35.114	1.645	0.27	1.144	-0.544	3.365
35.155	1.653	0.036	1.399	-0.553	3.413
35.245	1.681	0.048	1.428	-0.737	3.536
35.294	1.717	-0.062	1.396	-1.205	3.355
35.351	1.418	0.008	0.574	-0.949	3.152
35.4	1.759	0.01	1.541	-0.944	3.355
35.432			1.996	-0.601	
35.447	2.077	0.059	2.093	-0.431	3.31
35.467	2.261	0.112			3.36
35.479	2.207	0.069	2.325	-0.632	3.336
35.499	2.055	-0.189	2.302	-0.714	
35.522	2.144	0.001	2.405	-0.783	3.505
35.554	2.503	0.068	2.716	-0.49	3.528
35.589	2.281	-0.003	2.412	-0.848	3.449
35.617	2.514	0.089	2.377	-0.444	3.576
35.64	2.442	0.077	2.59	-0.382	3.578
35.676	2.371	0.155	2.473	-0.596	3.576
35.707	2.25	0.137	2.031	-0.706	3.538
35.747	2.273	0.069	2.229	-0.722	
35.774	2.236	0.196	2.202	-0.628	3.569
35.806	2.332	0.067	2.096	-0.71	3.544
35.833	2.288	0.085	2.552	-0.789	3.516
35.861	2.336	0.009	2.006	-1.069	
35.865					3.496
35.897	2.212	0.109	2.343	-0.76	3.557
35.928	2.194	0.168	2.379	-0.715	3.499
35.956	2.306	0.161	2.34	-0.493	3.528
35.983	2.285	0.132	2.268	-0.769	
36.003	2.336	0.273	2.392	-0.808	3.439
36.031	2.392	0.037	2.073	-0.783	3.524
36.054	2.268	-0.18			
36.082	2.295	-0.039	2.517	-0.568	3.187
36.105	2.397	-0.007	2.572	-0.594	3.552
36.161	2.242	-0.033	2.577	-0.642	3.537
36.184	2.432	-0.119	2.344	-0.603	3.527
36.278	1.586	0.098			3.101
36.356	1.329	0.262	1.199	-0.551	3.205
36.512	1.358	-0.14	1.387	-1.971	3.333
36.648	1.508	0.303	1.354	-0.569	3.22
36.842	1.633	0.217	1.423	-0.551	
36.94	1.391	0.16	1.296	-1.007	
37.076	1.443	0.26	0.82	-0.957	3.362
37.212	1.837	-0.212	1.135	-0.802	3.344
37.29	1.693	-0.034	1.324	-0.63	3.378
37.349	1.743	-0.061	0.698	-0.858	3.311
37.465	1.857	-0.061	1.441	-0.747	3.305
37.485	1.527	0.119	1.415	-0.559	3.162
37.504	1.713	0.124	1.11	-0.71	3.296
37.524	1.845	-1.484	1.643	-2.2295	3.568
37.563	1.99	-0.87	1.391	-1.958	3.422
37.621			1.609	-0.87	
37.66			1.267	-0.594	3.279
37.699			1.863	-0.916	
37.758			1.777	-1.34	3.377
37.913					3.484
38.342	1.654	0.042	1.442	-0.563	3.21
38.415	2.11	0.077	1.541	-0.631	3.365
38.445	2.088	0.035	1.539	-0.627	3.183
38.485	2.09	0.103	1.806	-0.718	3.452
38.51	2.175	0.02	1.455	-0.804	3.285
38.525	2.097	0.182	1.557	-0.634	3.355
38.565	2.142	0.088	1.901	-0.403	3.457
38.6	2.065	0.224	1.923	-0.567	3.299
38.64	2.228	0.108	2.065	-0.538	3.387
38.665	2.203	0.051	1.888	-0.608	
38.7	2.3	0.073	2.188	-0.591	3.529
38.75	2.251	0.048	2.21	-0.528	3.623
38.775	2.197	0.082	1.988	-0.67	
38.8	2.168	0.027	1.643	-0.597	
38.815	2.213	0.036	1.798	-0.805	3.705
38.85	2.266	0.104	2.217	-0.701	3.619
38.885	2.416	-0.005	1.753	-1.084	3.534
38.915	2.097	0.105	2.109	-0.525	3.54
38.95	2.351	0.035	2.2505	-0.6375	
38.975	2.202	0.023	2.39	-0.686	
39.005	2.377	0.082	2.593	-0.585	3.528
39.075	2.293	0.098	2.428	-0.41	
39.11	2.293	0.162	2.381	-0.666	
39.145	2.212	0.044	2.172	-0.817	
39.18	2.327	0.168	2.015	-0.73	
39.205	2.172	0.058	1.743	-0.668	3.438
39.24	2.327	0.14	1.685	-0.755	3.435
39.265	2.454	0.047	2.054	-0.354	
39.27	2.35	0.111			
39.29					3.571
39.325					3.535
39.355	2.315	-0.071			3.598
39.37	2.574	0.016	2.121	-0.288	3.627
39.375	2.488	0.128	2.016	-0.688	3.591
39.39	2.494	-0.043			
39.425	2.399	0.143			3.487
39.435	2.263	-0.19			
39.47	2.485	-0.099			3.519
39.495	2.23	0.038			3.354
39.535	2.413	-0.394	1.759	-1.142	3.1
39.585	2.445	0.046			3.594
39.605	2.551	-0.038			3.703
39.64	2.414	0.141			3.683
39.7	2.319	0.151	2.518	-0.667	3.584
39.75	2.277	0.115	2.236	-0.634	3.526
39.785	2.268	0.087			3.482
39.815	2.376	0.069	2.037	-0.439	3.511
39.85	2.411	0.062	2.203	-0.485	3.673
39.89	2.409	0.022	2.167	-0.48	3.631
39.925	2.171	0.258	2.126	-0.78	
39.96	2.096	0.432	2.386	-0.452	3.552
39.995	2.383	0.107	1.99	-0.249	3.606
40.03	2.457	0.209	2.465	-0.422	3.567
40.1	1.872	0.358	1.289	-0.548	3.303
40.122	2.101	0.157	1.454	-0.546	3.466
40.144	2.034	0.138	1.783	-0.451	3.377
40.175	1.67	0.463	1.575	-0.253	3.305
40.193	2.071	0.246			3.473
40.215	2.224	0.08	1.814	0.218	3.467
40.237	2.065	0.109			
40.259	2.17	0.067	1.873	-0.622	3.338
40.284	2.311	0.045			
40.305	2.074	0.254			
40.327	2.227	0.075			
40.349	2.258	0.117	2.245	-0.214	
40.364	2.234	0.118	1.961	-0.469	
40.386	2.374	0.047			
40.408	2.055	0.147			
40.43	2.247	0.183			
40.458	2.094	0.079	1.514	-0.392	3.156
40.48	2.219	0.065	2.29	-0.36	
40.501	2.183	0.126			
40.523	2.265	0.068			
40.545	2.222	0.076			3.343
40.573	2.103	0.104	1.959	-0.896	3.427
40.595	2.349	0.207			3.456
40.616	2.37	0.192			
40.638	2.24	0.2			
40.669	2.231	0.05			
40.691	2.233	0.275	2.035	-0.768	3.56
40.713	2.274	0.187			3.553
40.735	2.231	0.295	2.26	-0.339	3.634
40.756	2.186	0.125			3.418
40.778	2.355	0.107			3.417
40.8	1.775	0.476			3.414
40.848	1.953	0.502			3.382
40.897	1.797	0.554	1.508	-0.578	3.505
40.938	1.376	0.657	1.476	-0.599	3.286
40.986	1.645	0.461	1.596	-0.622	3.483
41.034	1.693	0.468	1.388	-0.746	3.435
41.083	1.613	0.616	1.486	-0.676	3.52
41.131	1.6	0.661	1.661	-0.342	3.572
41.179	1.502	0.514	1.617	-0.3555	3.3585
41.228	1.643	0.721	1.76	-0.658	3.547
41.469	2.039	0.322	1.455	-0.274	3.466
41.538	1.872	0.57	1.74	-0.529	3.551
41.614	1.76	0.471	1.785	-0.568	3.651
41.662	1.987	0.443	1.929	-0.346	3.596
41.71	1.854	0.456	1.584	-0.529	3.58
41.745	2.045	0.25	1.863	-0.369	3.581
41.786	2.053	0.313	1.597	-0.449	
41.821					3.469
41.855	1.972	0.335	1.942	-0.244	
41.869					3.587
41.91					3.471
41.945	2.071	0.239	1.276	-0.377	
41.993	1.927	0.003	1.396	-0.429	3.343
42.048	2.013	0.242	1.805	-0.724	3.282
42.103	1.727	0.043	1.474	-0.671	3.42
42.152	2.092	0.139	1.278	-0.669	3.434
42.2	1.646	0.3	1.598	-0.667	3.346
42.248	1.444	0.37	1.303	-0.759	3.463
42.297	1.899	0.271	0.93	-0.906	3.286
42.338	1.851	0.278	1.357	-1.127	3.364
42.414	2.156	-1.098	1.877	-1.971	
42.421					3.535
42.455	2.117	-0.194	1.584	-0.832	
42.462					3.412
42.51	2.056	0.112	1.371	-0.681	
42.517					3.35
42.552	2.1	0.123	1.301	-0.197	
42.559					3.459
42.566	2.367	0.059			
42.6	2.179	0.281	1.574	-0.567	
42.603					3.568
42.609	2.177	0.201	1.843	-0.429	
42.615			1.764	-0.716	
42.618					3.542
42.622	2.594	-1.451	2.281	-1.856	
42.625	2.366	-2.2495	2.334	-3.36	
42.628					3.574
42.631	2.365	-1.338	2.192	-2.499	
42.634					3.608
42.643	2.295	-0.103	2.072	-0.397	
42.646	2.243	0.144			3.391
42.658	2.16	0.035	1.757	-0.55	3.311
42.692	2.148	0.221	2.165	-0.49	3.533
42.714	2.227	0.197	1.401	0.004	
42.729	2.095	0.239	2.385	-0.502	3.358
42.797	2.036	-0.047	2.033	-0.677	
42.815	2.085	-0.056	2.345	-0.442	3.45
42.818	2.146	0.003	2.324	-0.373	3.478
42.862	2.125	0.026	2.294	-0.366	3.399
42.865	2.237	0.183	2.177	-0.464	3.41
42.871	2.296	0.19	2.265	-0.452	3.411
42.895	2.168	-0.11	2.085	-0.537	
42.898					3.41
42.935	2.076	0.184	2.328	-0.422	
42.938					3.571
42.954	2.28	0.139	2.256	-0.51	
42.982	2.106	0.05	2.261	-0.612	
43	2.124	0.159	2.138	-0.489	
43.003					3.507
43.006	2.153	0.18	1.498	-0.403	
43.031					3.45
43.052					3.347
43.071	2.049	0.163	1.87	-0.634	
43.074	2.036	0.259			
43.114	2.124	0.275			
43.135	2.161	0.137			
43.138					3.412
43.16	2.165	0.24			3.46
43.182	2.421	0.075			
43.2	2.075	0.267			
43.207					3.399
43.254	1.801	-0.046	1.374	-0.424	3.151
43.295	2.003	0.125	1.044	-0.854	3.383
43.329	1.605	0.105	0.972	-0.801	
43.335					3.249
43.39	1.554	-0.083	1.268	-1.051	3.246
43.417	1.661	0.203	1.454	-0.685	3.162
43.552	2.215	0.205	2.059	-0.483	3.366
43.633	1.811	-0.02	1.841	-0.554	
43.64					3.354
43.674	1.516	-0.183	1.721	-0.543	
43.681					3.15
43.721	1.753	0.149	1.629	-0.519	
43.728					3.292
43.775	1.817	0.095	1.665	-0.499	3.345
43.823	1.737	0.152	1.554	-0.073	3.329
43.897	1.987	0.188	1.972	-0.411	
43.904					3.202
43.945			1.814	-0.367	
43.951					3.334
43.992	1.992	0.098	2.013	-0.549	
43.999					3.365
44.094					3.153
44.141	1.894	0.154	1.528	-0.788	
44.148					3.403
44.182	1.918	0.046	1.107	-0.573	
44.188					3.366
44.236	1.501	0.477	0.994	-0.558	
44.242					3.401
44.29	1.524	0.512	0.852	-0.075	3.146
44.344	1.657	0.299	1.289	-0.787	3.421
44.391	1.762	0.023			
44.398					3.326
44.439	1.815	-0.085			
44.446					3.272
44.486	1.9	0.131	1.473	-0.526	
44.493					3.331
44.554	1.888	0.006	1.654	-0.503	3.398
44.601	2.034	0.255	1.862	-0.428	3.375
44.649	2.013	0.16	1.902	-0.544	3.317
44.696	1.969	0.115	1.65	-0.748	
44.703					3.453
44.737	1.86	0.174	1.462	-0.786	
44.743					3.228
44.811	1.595	0.334	1.181	-0.672	
44.818					3.389
44.858	1.854	0.337	1.002	-0.938	3.495
44.899			0.826	-0.507	
44.946	1.934	0.056	1.511	-0.834	3.433
45.007	1.724	0.124	1.137	-0.577	
45.014					3.309
45.048	1.238	-0.057	0.736	-0.702	
45.055					3.192
45.095			1.281	-0.937	
45.102					3.276
45.143	1.645	0.215	1.691	-0.605	
45.15					3.22
45.197	1.702	0.047	1.701	-0.53	3.392
45.244	1.729	0.231	1.767	-0.37	3.319
45.292	1.85	0.381	1.81	-0.569	3.194
45.332	2.085	0.256	1.324	-0.474	
45.339					3.309
45.4	1.961	-0.14	1.162	-0.789	
45.404					3.266
45.42	2.264	0.169			
45.424					3.453
45.456	2.211	0.163			
45.488	2.133	0.146			
45.492					3.355
45.527	2.176	0.097	1.92	-0.531	3.194
45.547	2.175	0.032	1.991	-0.931	
45.551					3.57
45.591	2.323	0.136	2.108	-0.435	
45.619	2.353	0.124	2.511	-0.84	
45.647	2.398	0.099	2.368	-0.637	3.593
45.687	2.157	-0.065			
45.691					3.585
45.719	2.239	0.086	1.105	-0.527	3.53
45.743	2.394	0.146			3.538
45.751	2.249	0.051	1.788	-0.45	
45.755					3.502
45.763	2.164	0.041	1.556	-0.924	
45.767					3.47
45.771	2.33	0.059	1.765	-0.788	
45.775					3.519
45.802	2.621	0.121	2.247	-0.75	
45.83	2.373	0.17	1.661	-0.995	
45.862	2.163	0.186	1.628	-0.976	
45.878	2.184	0.075	1.764	-0.934	
45.882					3.432
45.902	2.162	0.111	1.485	-0.715	
45.906					3.404
45.922	2.383	0.138	2.508	-0.687	
45.946	2.463	0.138	2.649	-0.615	
45.95					3.53
45.998	2.435	0.033	2.534	-0.683	
46.033	2.441	0.079	2.176	-0.509	
46.057	2.381	0.025	1.866	-0.707	
46.061					3.529
46.081	2.418	0.042	2.284	-0.524	
46.093					3.502
46.129					3.428
46.141	2.25	0.116	2.189	-0.617	
46.161	2.121	0.188			
46.193	2.183	0.164			
46.217	2.293	0.153	1.845	-0.561	3.512
46.276	2.247	0.051	2.17	-0.376	
46.304	2.204	0.124	2.225	-0.588	
46.308					3.458
46.344	2.1	0.136	1.977	-0.761	
46.356					3.51
46.372	2.097	0.066	2.125	-0.717	
46.376					3.484
46.4	1.634	-0.035			3.221
46.503	1.573	0.303	1.385	-0.588	
46.518					3.287
46.607	1.852	0.143	1.76	-0.502	
46.621					3.238
46.754	1.608	0.036	1.768	-0.648	3.229
46.858	2.088	0.163	2.066	-0.433	
46.872					3.307
46.961	1.794	0.21	1.895	-0.534	
46.976					3.258
47.079	1.64	0.239	1.953	-0.493	3.358
47.182	1.847	0.028	1.768	-0.797	
47.197					3.288
47.285	2.018	0.044	1.677	-0.779	
47.3					3.372
47.359	1.577	0.404	1.412	-0.76	3.277
47.463	1.973	0.033	1.289	-0.844	
47.477					3.188
47.566	1.818	-0.043	1.626	-0.545	
47.581					3.184
47.713	1.983	-0.206	1.555	-0.424	3.165
47.817	1.844	-0.153	1.78	-0.504	
47.832					3.211
47.891	1.803	0.134	1.98	-0.549	
47.905					3.153
48.009	1.739	0.307	1.9	-0.38	3.154
48.068	1.932	0.213	1.521	-0.413	3.159
48.171	1.784	0.256	1.734	-0.449	
48.186					3.265
48.274	1.747	0.175	1.611	-0.571	
48.289					3.294
48.378	1.575	0.406	1.998	-0.42	3.361
48.481	1.607	0.382	1.668	-0.775	
48.496					3.129
48.702	1.955	0.008	1.201	-0.669	3.246
48.806	1.469	0.443	0.919	-1.281	3.393
48.894	1.532	0.399	0.939	-0.973	
48.909					3.318
48.997	1.839	0.133	1.362	-0.757	
49.012					3.207
49.101	1.703	0.143	1.367	-0.743	3.179
49.204	1.646	0.286	0.866	-0.858	3.291
49.307	1.763	0.197	1.573	-0.635	
49.322					3.415
49.411			1.345	-0.469	
49.425					3.316
49.47	1.676	0.177	1.016	-0.788	3.114
49.558	1.656	0.365	1.283	-0.663	3.32
49.691	1.759	0.182	1.279	-0.582	
49.706					3.308
49.765	1.416	0.71	1.192	-0.459	
49.78					3.361
49.853	1.438	0.42	1.213	-0.19	3.176
49.942	1.281	0.464	1.367	-0.604	3.286
50.06	1.462	-0.017	1.238	-0.587	
50.075					3.294
50.163	1.476	0.518	1.173	-0.445	
50.178					3.275
50.326	1.139	0.412	0.863	-0.723	3.11
50.414	1.458	0.233	0.993	-0.554	
50.429					3.267
50.503	1.36	0.141	1.457	-0.812	3.213
50.591	1.569	-0.052	1.504	-0.936	3.17
50.695	1.329	0.452	0.81	-0.705	
50.709					3.229
50.813	1.282	0.599	1.134	-0.748	
50.916	1.388	0.531	0.785	-0.939	
50.931					3.295
51.019	1.446	0.66	1.673	-0.586	3.361
51.123	1.607	-0.003	0.564	-1.182	
51.137					3.195
51.226	1.823	-0.024	0.848	-1.026	3.319
51.315	2.17	-0.02	2.102	-0.63	3.32
51.388	1.657	-0.02	0.975	-0.586	
51.403					3.238
51.492	2.129	-0.117	1.717	-0.466	3.09
51.595	1.511	0.431	1.361	-0.786	
51.61					3.164
51.713	1.626	0.33	1.754	-0.594	3.219
51.772	1.796	0.053	1.314	-0.679	3.15
52.052	1.85	0.143	1.275	-0.993	3.184
52.082	1.735	0.236	1.417	-0.726	
52.097					3.198
52.185	1.72	0.108	1.257	-0.936	3.242
52.234	2.386	0.105	2.475	-0.246	3.313
52.259	2.401	0.148	2.418	-0.544	3.363
52.378	2.35	0.197	2.443	-0.334	
52.386					3.403
52.437	2.143	0.099	2.55	-0.367	3.401
52.496	2.112	0.14	2.437	-0.41	3.401
52.504	2.062	0.208	2.331	-0.515	3.441
52.64	2.076	-0.07	2.495	-0.397	
52.648	1.925	0.109	2.304	-0.391	3.383
52.657					3.424
52.691	2.019	0.069	2.176	-0.532	3.419
52.75	2.059	0.193	2.237	-0.612	3.431
52.91	2.387	-0.025	2.289	-0.605	3.345
52.919	2.094	0.083	2.32	-0.273	3.44
52.978	2.019	0.158	2.35	-0.618	3.352
52.995	1.723	0.12	2.012	-0.562	3.518
53.147	2.323	0.126	2.447	-0.348	3.386
53.198	2.201	-0.009	1.995	-0.446	3.35
53.257	2.138	-0.035	2.246	-0.435	
53.266					3.342
53.316	2.279	0.002	2.398	-0.36	
53.325					3.157
53.393	2.207	-0.475	2.229	-0.688	
53.452	2.253	-0.005	2.386	-0.581	
53.46					3.54
53.511	2.328	-0.067	2.469	-0.5	
53.519					3.486
53.57	2.341	-0.018	2.168	-0.421	
53.579					3.333
53.655	1.48	0.062	1.039	-0.818	
53.663					3.351
53.714	2.035	-0.102	1.976	-0.455	
53.722					3.203
53.782	1.688	0.172	1.093	-0.938	3.325
53.832	1.706	-0.062	1.467	-0.679	
53.841					3.349
53.892	2.299	0.054	1.751	-0.587	
53.9					3.488
53.913	2.283	-0.001	2.107	-0.568	
53.919					3.385
53.926	2.257	0.046	2.04	-0.852	
53.932					3.361
53.971	2.002	0.204	1.894	-0.6	3.26
54.023	2.17	0.063	1.74	-0.641	3.493
54.061	2.16	0.003	1.818	-0.887	
54.106	2.355	0.015	1.685	-0.975	3.47
54.152	2.016	-0.195			3.473
54.197	2.158	-0.068	2.31	-0.429	3.548
54.242	2.316	-0.286	2.423	-0.618	3.518
54.287	2.279	-0.256	1.964	-0.594	3.383
54.358	2.383	-0.07	1.809	-0.874	
54.403	2.091	-0.046	2.138	-0.419	3.473
54.474	2.444	-0.231	2.324	-0.561	3.321
54.5	2.224	-0.494	2.111	-0.819	
54.506					3.477
54.539	2.204	-0.203	2.028	-0.781	
54.545					3.489
54.577					3.559
54.584	2.14	-0.2	1.921	-0.922	
54.623	2.068	-0.141	2.082	-0.727	3.459
54.655	2.194	0.059			3.451
54.694	1.933	-0.053	1.654	-0.929	
54.7					3.345
54.774	1.751	0.006	1.325	-0.776	
54.789					3.488
54.849	1.733	-0.06	1.909	-0.554	
54.864					3.285
54.968	2.069	-0.096	1.716	-0.815	3.352
55.072	1.842	0.029	1.608	-0.578	3.366
55.176	1.944	-0.021	2.136	-0.628	
55.191					3.393
55.31	1.675	0.048	1.651	-0.921	
55.325					3.376
55.414	2.143	0.058	1.854	-0.744	
55.429					3.332
55.518	1.5	0.239	1.694	-0.779	3.348
55.622	1.846	-0.879	1.795	-1.453	3.284
55.697	1.514	0.34	1.817	-0.844	
55.712					3.256
55.756	1.489	-0.086	1.594	-1.31	
55.771					3.263
55.801	1.548	0	1.24	-0.873	
55.816					3.188
55.905	1.4	0.454	1.559	-0.853	
55.92					3.27
56.024	1.801	0.104	1.86	-0.817	3.275
56.128	1.608	0.111	1.646	-1.015	3.187
56.232	1.614	0.191	1.797	-0.797	
56.247					3.172
56.307	1.507	-0.453	0.963	-1.034	
56.321					2.981
56.336	1.446	0.381	0.915	-0.89	
56.351					3.173
56.44	1.659	0.185	1.372	-0.976	
56.455					3.375
56.56	1.838	-0.023	1.755	-0.619	3.345
56.649	1.548	0.05	1.62	-0.936	3.351
56.738	1.629	0.176	1.524	-0.939	3.392
56.842	1.795	-0.205	0.676	-1.098	3.219
56.946	1.696	0.224	0.779	-1.17	3.352
57.05	1.86	0.037	1.445	-0.997	3.383
57.155	1.533	0.267	0.531	-1.305	
57.169					3.366
57.274	1.769	-0.845	1.735	-0.675	
57.288					3.239
57.378	1.598	0.417	1.21	-1.145	
57.393					3.448
57.482	1.645	0.322	1.088	-0.938	
57.497					3.402
57.586	1.947	-0.084	1.636	-1.126	
57.601					3.538
57.764	2.102	-0.041	2.338	-0.426	
57.779					3.159
57.854	1.961	0.202	1.621	-0.89	3.497
57.943	1.5	0.288	1.113	-0.973	
57.958					3.463
58.032	1.696	0.308	1.056	-0.906	3.514
58.107	2.331	0.033	2.441	-0.711	
58.121					3.516
58.196	2.214	0.159	2.598	-0.657	3.539
58.285	1.947	0.159	1.545	-0.878	3.607
58.452	2.085	-0.283	1.869	-0.582	
58.63	2.24	-0.144	2.008	-0.81	3.633
58.808	2.293	-0.132	2.229	-0.818	3.601
58.986	2.336	-0.408	2.238	-0.664	3.535
59.163	2.339	-0.203	2.052	-0.703	3.615
59.29	2.209	-1.075	1.984	-1.423	3.44
59.468	2.449	-0.193	2.317	-0.871	3.622
59.646	2.388	-0.154	2.428	-0.763	3.633
59.824	2.536	-0.145	2.383	-0.798	3.59
60.052	2.23	-0.337	2.073	-0.693	3.442
60.23	2.488	-0.112	2.041	-0.64	3.697
60.408	2.385	-0.141	2.347	-0.665	3.681
60.611	2.424	-0.088	2.154	-0.776	3.628
60.789	2.288	-0.304	2.228	-0.758	3.664
60.966	2.608	-0.207	2.2	-0.561	3.651
61.119	2.527	-0.115	2.009	-0.39	3.64
61.373	2.433	-0.016	2.208	-0.688	3.72
61.551	2.498	-0.128	2.234	-0.724	3.635
62.338	2.423	-0.08	2.499	-0.655	3.577
63.1	2.239	-0.38	2.285	-0.523	3.796
63.861	2.166	-0.159	2.061	-0.687	3.644
64.26	2.29	-0.319	2.192	-0.588	3.63
64.562	2.491	-0.18	2.791	-0.501	3.636
64.778	2.374	-0.032	2.264	-0.572	3.635
65.034	2.361	-0.194			
65.289	2.421	-0.273	2.706	-0.455	3.858
65.506	2.459	-0.289	2.672	-0.593	3.615
65.707					3.588
65.753					3.46367
